#Sample	Not specified	
#B-Field Theta	1.35000506235E+2	deg
RF-Frequency	Timestamp	Photon Counter1 CH A	Photon Counter1 CH B	Photon Counter1 Ratio
Hz	s since 1904-01-01 12amUTC	counts	counts	a.u.
2790000000.00	3728994344.77	1200434.00000	1201714.00000	0.998934854716
2790850000.00	3728994346.05	1200383.00000	1200269.00000	1.00009497871
2791700000.00	3728994347.39	1195720.00000	1196348.00000	0.999475069127
2792550000.00	3728994348.67	1194355.00000	1192624.00000	1.00145142140
2793400000.00	3728994349.96	1190674.00000	1191921.00000	0.998953789723
2794250000.00	3728994351.29	1193038.00000	1193238.00000	0.999832388844
2795100000.00	3728994352.58	1192852.00000	1192711.00000	1.00011821808
2795950000.00	3728994353.87	1183023.00000	1184837.00000	0.998468987717
2796800000.00	3728994355.19	1183597.00000	1186842.00000	0.997265853416
2797650000.00	3728994356.48	1192858.00000	1191736.00000	1.00094148368
2798500000.00	3728994357.77	1191838.00000	1192025.00000	0.999843124096
2799350000.00	3728994359.08	1189609.00000	1189842.00000	0.999804175680
2800200000.00	3728994360.37	1193190.00000	1194422.00000	0.998968538758
2801050000.00	3728994361.66	1190318.00000	1190315.00000	1.00000252034
2801900000.00	3728994362.97	1183403.00000	1184355.00000	0.999196186954
2802750000.00	3728994364.26	1190776.00000	1189938.00000	1.00070423837
2803600000.00	3728994365.56	1194833.00000	1197712.00000	0.997596250184
2804450000.00	3728994366.88	1201314.00000	1200903.00000	1.00034224246
2805300000.00	3728994368.18	1200497.00000	1202164.00000	0.998613333954
2806150000.00	3728994369.47	1193692.00000	1195381.00000	0.998587061364
2807000000.00	3728994370.79	1187447.00000	1188300.00000	0.999282167803
2807850000.00	3728994372.09	1181307.00000	1181568.00000	0.999779107085
2808700000.00	3728994373.38	1190146.00000	1189457.00000	1.00057925591
2809550000.00	3728994374.71	1185536.00000	1187068.00000	0.998709425239
2810400000.00	3728994376.00	1183368.00000	1186566.00000	0.997304827544
2811250000.00	3728994377.34	1191991.00000	1194373.00000	0.998005648152
2812100000.00	3728994378.62	1188413.00000	1189289.00000	0.999263425458
2812950000.00	3728994379.91	1180583.00000	1182622.00000	0.998275864985
2813800000.00	3728994381.24	1172434.00000	1175960.00000	0.997001598694
2814650000.00	3728994382.53	1187081.00000	1187974.00000	0.999248300047
2815500000.00	3728994383.82	1189396.00000	1189024.00000	1.00031286164
2816350000.00	3728994385.15	1192198.00000	1191323.00000	1.00073447755
2817200000.00	3728994386.44	1179913.00000	1182384.00000	0.997910154400
2818050000.00	3728994387.73	1174017.00000	1176778.00000	0.997653763072
2818900000.00	3728994389.07	1174773.00000	1177151.00000	0.997979868343
2819750000.00	3728994390.35	1184196.00000	1184002.00000	1.00016385107
2820600000.00	3728994391.64	1184181.00000	1186326.00000	0.998191896662
2821450000.00	3728994392.97	1187165.00000	1187873.00000	0.999403976688
2822300000.00	3728994394.26	1183579.00000	1184417.00000	0.999292478916
2823150000.00	3728994395.55	1177560.00000	1178877.00000	0.998882835105
2824000000.00	3728994396.89	1196686.00000	1197180.00000	0.999587363638
2824850000.00	3728994398.18	1185084.00000	1188478.00000	0.997144246675
2825700000.00	3728994399.47	1186571.00000	1186840.00000	0.999773347713
2826550000.00	3728994400.80	1190159.00000	1191866.00000	0.998567792017
2827400000.00	3728994402.09	1192234.00000	1193171.00000	0.999214697642
2828250000.00	3728994403.38	1192969.00000	1194735.00000	0.998521847941
2829100000.00	3728994404.70	1197772.00000	1198441.00000	0.999441774772
2829950000.00	3728994406.00	1192387.00000	1193333.00000	0.999207262348
2830800000.00	3728994407.28	1191852.00000	1192959.00000	0.999072055284
2831650000.00	3728994408.62	1185058.00000	1187680.00000	0.997792334636
2832500000.00	3728994409.91	1180838.00000	1183275.00000	0.997940461854
2833350000.00	3728994411.20	1186046.00000	1189154.00000	0.997386377206
2834200000.00	3728994412.52	1191002.00000	1188790.00000	1.00186071552
2835050000.00	3728994413.81	1184980.00000	1189063.00000	0.996566203809
2835900000.00	3728994415.08	1191521.00000	1193971.00000	0.997948023863
2836750000.00	3728994416.39	1192914.00000	1197408.00000	0.996246893290
2837600000.00	3728994417.68	1196090.00000	1202364.00000	0.994781946233
2838450000.00	3728994419.01	1193959.00000	1195885.00000	0.998389477249
2839300000.00	3728994420.31	1191982.00000	1198284.00000	0.994740812695
2840150000.00	3728994421.59	1183562.00000	1191600.00000	0.993254447801
2841000000.00	3728994422.93	1176907.00000	1185681.00000	0.992600033230
2841850000.00	3728994424.22	1172252.00000	1185697.00000	0.988660678065
2842700000.00	3728994425.51	1169683.00000	1183529.00000	0.988301089369
2843550000.00	3728994426.83	1165214.00000	1177114.00000	0.989890528870
2844400000.00	3728994428.13	1164404.00000	1178331.00000	0.988180740386
2845250000.00	3728994429.41	1154113.00000	1168177.00000	0.987960728554
2846100000.00	3728994430.74	1151775.00000	1163773.00000	0.989690429319
2846950000.00	3728994432.03	1152956.00000	1167810.00000	0.987280465144
2847800000.00	3728994433.33	1163215.00000	1175681.00000	0.989396783651
2848650000.00	3728994434.66	1164412.00000	1175100.00000	0.990904603864
2849500000.00	3728994435.95	1162220.00000	1169248.00000	0.993989299105
2850350000.00	3728994437.24	1167746.00000	1173624.00000	0.994991581631
2851200000.00	3728994438.56	1176729.00000	1182363.00000	0.995234965911
2852050000.00	3728994439.85	1174694.00000	1181392.00000	0.994330417000
2852900000.00	3728994441.14	1169637.00000	1175024.00000	0.995415412792
2853750000.00	3728994442.47	1169506.00000	1172133.00000	0.997758786759
2854600000.00	3728994443.77	1171233.00000	1176265.00000	0.995722052429
2855450000.00	3728994445.06	1181305.00000	1183648.00000	0.998020526373
2856300000.00	3728994446.39	1169096.00000	1171979.00000	0.997540058312
2857150000.00	3728994447.68	1169355.00000	1170200.00000	0.999277901213
2858000000.00	3728994448.96	1170277.00000	1171071.00000	0.999321988163
2858850000.00	3728994450.29	1169365.00000	1171274.00000	0.998370150793
2859700000.00	3728994451.58	1164573.00000	1166081.00000	0.998706779375
2860550000.00	3728994452.87	1174174.00000	1176574.00000	0.997960179300
2861400000.00	3728994454.19	1167515.00000	1169517.00000	0.998288182215
2862250000.00	3728994455.48	1173314.00000	1172672.00000	1.00054746766
2863100000.00	3728994456.78	1168840.00000	1169198.00000	0.999693807208
2863950000.00	3728994458.10	1172453.00000	1171400.00000	1.00089892436
2864800000.00	3728994459.39	1172042.00000	1176467.00000	0.996238738528
2865650000.00	3728994460.72	1174754.00000	1175863.00000	0.999056862917
2866500000.00	3728994462.01	1173982.00000	1178077.00000	0.996523996309
2867350000.00	3728994463.29	1172291.00000	1171803.00000	1.00041645225
2868200000.00	3728994464.61	1169493.00000	1174129.00000	0.996051541185
2869050000.00	3728994465.89	1177696.00000	1178938.00000	0.998946509486
2869900000.00	3728994467.18	1179141.00000	1178826.00000	1.00026721501
2870750000.00	3728994468.52	1165970.00000	1166492.00000	0.999552504432
2871600000.00	3728994469.81	1169474.00000	1172746.00000	0.997209967035
2872450000.00	3728994471.10	1175483.00000	1180472.00000	0.995773724409
2873300000.00	3728994472.40	1181918.00000	1179531.00000	1.00202368569
2874150000.00	3728994473.70	1173671.00000	1174726.00000	0.999101918235
2875000000.00	3728994474.98	1173567.00000	1172799.00000	1.00065484367
2875850000.00	3728994476.32	1169215.00000	1169818.00000	0.999484535201
2876700000.00	3728994477.60	1177172.00000	1177864.00000	0.999412495840
2877550000.00	3728994478.89	1166258.00000	1169526.00000	0.997205705559
2878400000.00	3728994480.21	1179873.00000	1183945.00000	0.996560651044
2879250000.00	3728994481.50	1174476.00000	1177354.00000	0.997555535548
2880100000.00	3728994482.79	1181017.00000	1182563.00000	0.998692670073
2880950000.00	3728994484.11	1170401.00000	1171965.00000	0.998665489157
2881800000.00	3728994485.41	1172317.00000	1175436.00000	0.997346516527
2882650000.00	3728994486.69	1182853.00000	1185663.00000	0.997630017973
2883500000.00	3728994488.02	1177699.00000	1181481.00000	0.996798932865
2884350000.00	3728994489.32	1183087.00000	1185389.00000	0.998058021460
2885200000.00	3728994490.61	1178082.00000	1182528.00000	0.996240258159
2886050000.00	3728994491.94	1183307.00000	1189778.00000	0.994561170235
2886900000.00	3728994493.23	1180354.00000	1186401.00000	0.994903072401
2887750000.00	3728994494.52	1169707.00000	1175319.00000	0.995225126115
2888600000.00	3728994495.84	1178334.00000	1187520.00000	0.992264551334
2889450000.00	3728994497.13	1178190.00000	1190110.00000	0.989984119115
2890300000.00	3728994498.42	1178185.00000	1190536.00000	0.989625681206
2891150000.00	3728994499.75	1172590.00000	1189214.00000	0.986021018925
2892000000.00	3728994501.03	1173176.00000	1190767.00000	0.985227168707
2892850000.00	3728994502.37	1170446.00000	1190429.00000	0.983213614588
2893700000.00	3728994503.66	1163502.00000	1181701.00000	0.984599319117
2894550000.00	3728994504.95	1168815.00000	1187147.00000	0.984557935959
2895400000.00	3728994506.28	1177631.00000	1195087.00000	0.985393532019
2896250000.00	3728994507.57	1179248.00000	1190998.00000	0.990134324323
2897100000.00	3728994508.85	1180084.00000	1191015.00000	0.990822113911
2897950000.00	3728994510.19	1178843.00000	1187838.00000	0.992427418554
2898800000.00	3728994511.47	1187536.00000	1193690.00000	0.994844557632
2899650000.00	3728994512.76	1183705.00000	1191420.00000	0.993524533750
2900500000.00	3728994514.09	1184016.00000	1188491.00000	0.996234721172
2901350000.00	3728994515.38	1192208.00000	1193816.00000	0.998653058763
2902200000.00	3728994516.67	1196379.00000	1198729.00000	0.998039590266
2903050000.00	3728994517.99	1193220.00000	1197290.00000	0.996600656483
2903900000.00	3728994519.27	1190210.00000	1191919.00000	0.998566177735
2904750000.00	3728994520.56	1189526.00000	1193009.00000	0.997080491430
2905600000.00	3728994521.88	1189200.00000	1193888.00000	0.996073333512
2906450000.00	3728994523.17	1194870.00000	1192193.00000	1.00224544180
2907300000.00	3728994524.47	1185257.00000	1190395.00000	0.995683785634
2908150000.00	3728994525.79	1190447.00000	1194027.00000	0.997001742842
2909000000.00	3728994527.08	1187891.00000	1191377.00000	0.997073974065
2909850000.00	3728994528.41	1190928.00000	1194112.00000	0.997333583449
2910700000.00	3728994529.70	1196014.00000	1197700.00000	0.998592301912
2911550000.00	3728994530.98	1188663.00000	1190477.00000	0.998476241036
2912400000.00	3728994532.31	1189964.00000	1189913.00000	1.00004286028
2913250000.00	3728994533.61	1191678.00000	1191673.00000	1.00000419578
2914100000.00	3728994534.89	1183974.00000	1185754.00000	0.998498845460
2914950000.00	3728994536.23	1190835.00000	1191699.00000	0.999274984707
2915800000.00	3728994537.52	1187362.00000	1188398.00000	0.999128238183
2916650000.00	3728994538.81	1187707.00000	1189875.00000	0.998177959870
2917500000.00	3728994540.13	1189409.00000	1191648.00000	0.998121089449
2918350000.00	3728994541.42	1184677.00000	1185909.00000	0.998961134455
2919200000.00	3728994542.70	1182208.00000	1186229.00000	0.996610266652
2920050000.00	3728994544.03	1186983.00000	1189195.00000	0.998139918180
2920900000.00	3728994545.33	1184979.00000	1186203.00000	0.998968136145
2921750000.00	3728994546.60	1183239.00000	1183362.00000	0.999896058856
2922600000.00	3728994547.94	1176828.00000	1179435.00000	0.997789619606
2923450000.00	3728994549.23	1184672.00000	1188175.00000	0.997051781093
2924300000.00	3728994550.52	1186622.00000	1184773.00000	1.00156063651
2925150000.00	3728994551.85	1180026.00000	1184477.00000	0.996242223361
2926000000.00	3728994553.14	1171211.00000	1174295.00000	0.997373743395
2926850000.00	3728994554.42	1164242.00000	1166799.00000	0.997808534289
2927700000.00	3728994555.75	1162392.00000	1164931.00000	0.997820471770
2928550000.00	3728994557.04	1168946.00000	1171529.00000	0.997795189022
2929400000.00	3728994558.33	1178154.00000	1177371.00000	1.00066504101
2930250000.00	3728994559.66	1184325.00000	1185213.00000	0.999250767584
2931100000.00	3728994560.95	1181891.00000	1181676.00000	1.00018194497
2931950000.00	3728994562.24	1180824.00000	1180799.00000	1.00002117210
2932800000.00	3728994563.57	1176905.00000	1178427.00000	0.998708447787
2933650000.00	3728994564.86	1173625.00000	1176587.00000	0.997482549102
2934500000.00	3728994566.14	1175857.00000	1179281.00000	0.997096535940
2935350000.00	3728994567.47	1178002.00000	1179304.00000	0.998895958972
2936200000.00	3728994568.77	1178742.00000	1179796.00000	0.999106625213
2937050000.00	3728994570.06	1180758.00000	1179190.00000	1.00132972634
2937900000.00	3728994571.39	1180335.00000	1182400.00000	0.998253552097
2938750000.00	3728994572.68	1174269.00000	1176592.00000	0.998025653753
2939600000.00	3728994573.97	1172178.00000	1172669.00000	0.999581297024
2940450000.00	3728994575.30	1181163.00000	1185331.00000	0.996483682617
2941300000.00	3728994576.59	1178177.00000	1182732.00000	0.996148747138
2942150000.00	3728994577.87	1182011.00000	1182890.00000	0.999256904700
2943000000.00	3728994579.16	1184780.00000	1185949.00000	0.999014291508
2943850000.00	3728994580.49	1189260.00000	1190193.00000	0.999216093524
2944700000.00	3728994581.78	1185418.00000	1185924.00000	0.999573328476
2945550000.00	3728994583.11	1181480.00000	1181960.00000	0.999593894886
2946400000.00	3728994584.40	1180804.00000	1181381.00000	0.999511588556
2947250000.00	3728994585.69	1180929.00000	1181247.00000	0.999730792967
2948100000.00	3728994587.02	1172936.00000	1173332.00000	0.999662499616
2948950000.00	3728994588.31	1175367.00000	1175597.00000	0.999804354724
2949800000.00	3728994589.59	1181615.00000	1181623.00000	0.999993229651
