#Sample	Not specified	
#B-Field Theta	1.65000002914E+2	deg
RF-Frequency	Timestamp	Photon Counter1 CH A	Photon Counter1 CH B	Photon Counter1 Ratio
Hz	s since 1904-01-01 12amUTC	counts	counts	a.u.
2790000000.00	3728995836.48	1119078.00000	1119730.00000	0.999417716771
2790850000.00	3728995837.77	1120724.00000	1121967.00000	0.998892124278
2791700000.00	3728995839.06	1113937.00000	1115608.00000	0.998502162050
2792550000.00	3728995840.39	1118379.00000	1118584.00000	0.999816732583
2793400000.00	3728995841.68	1118536.00000	1122289.00000	0.996655941562
2794250000.00	3728995842.97	1118454.00000	1118352.00000	1.00009120563
2795100000.00	3728995844.30	1105796.00000	1106318.00000	0.999528164596
2795950000.00	3728995845.59	1101643.00000	1103276.00000	0.998519862664
2796800000.00	3728995846.88	1103362.00000	1103435.00000	0.999933842954
2797650000.00	3728995848.20	1093158.00000	1093081.00000	1.00007044309
2798500000.00	3728995849.49	1097476.00000	1097356.00000	1.00010935376
2799350000.00	3728995850.78	1101226.00000	1103924.00000	0.997555991173
2800200000.00	3728995852.10	1103896.00000	1105964.00000	0.998130138052
2801050000.00	3728995853.39	1105085.00000	1107499.00000	0.997820314059
2801900000.00	3728995854.72	1103662.00000	1102086.00000	1.00143001544
2802750000.00	3728995856.01	1096020.00000	1099448.00000	0.996882071731
2803600000.00	3728995857.30	1092658.00000	1094676.00000	0.998156532161
2804450000.00	3728995858.63	1094051.00000	1095658.00000	0.998533301450
2805300000.00	3728995859.92	1097662.00000	1096157.00000	1.00137297851
2806150000.00	3728995861.21	1092248.00000	1095374.00000	0.997146180209
2807000000.00	3728995862.54	1096075.00000	1095487.00000	1.00053674758
2807850000.00	3728995863.83	1111102.00000	1111412.00000	0.999721075533
2808700000.00	3728995865.12	1108357.00000	1108481.00000	0.999888135205
2809550000.00	3728995866.45	1108807.00000	1112134.00000	0.997008454017
2810400000.00	3728995867.74	1093841.00000	1097002.00000	0.997118510267
2811250000.00	3728995869.03	1103115.00000	1107237.00000	0.996277219782
2812100000.00	3728995870.36	1102852.00000	1105278.00000	0.997805077094
2812950000.00	3728995871.65	1114187.00000	1115088.00000	0.999191992022
2813800000.00	3728995872.94	1120029.00000	1120687.00000	0.999412860147
2814650000.00	3728995874.27	1112296.00000	1111988.00000	1.00027698141
2815500000.00	3728995875.56	1111944.00000	1111192.00000	1.00067675073
2816350000.00	3728995876.85	1114692.00000	1117063.00000	0.997877469758
2817200000.00	3728995878.18	1116096.00000	1116937.00000	0.999247047953
2818050000.00	3728995879.47	1116116.00000	1119243.00000	0.997206147369
2818900000.00	3728995880.76	1116230.00000	1116487.00000	0.999769813710
2819750000.00	3728995882.09	1109710.00000	1111608.00000	0.998292563566
2820600000.00	3728995883.38	1108876.00000	1110782.00000	0.998284091748
2821450000.00	3728995884.67	1105589.00000	1106543.00000	0.999137855465
2822300000.00	3728995886.00	1110778.00000	1112587.00000	0.998374059736
2823150000.00	3728995887.29	1109267.00000	1111519.00000	0.997973943765
2824000000.00	3728995888.58	1107446.00000	1109982.00000	0.997715278266
2824850000.00	3728995889.91	1108673.00000	1109312.00000	0.999423967288
2825700000.00	3728995891.20	1115723.00000	1113422.00000	1.00206660188
2826550000.00	3728995892.49	1116689.00000	1119101.00000	0.997844698557
2827400000.00	3728995893.82	1115684.00000	1119603.00000	0.996499652109
2828250000.00	3728995895.11	1118588.00000	1116743.00000	1.00165212587
2829100000.00	3728995896.40	1112966.00000	1115947.00000	0.997328726185
2829950000.00	3728995897.73	1109885.00000	1112204.00000	0.997914950854
2830800000.00	3728995899.02	1100510.00000	1102740.00000	0.997977764478
2831650000.00	3728995900.31	1103128.00000	1104646.00000	0.998625804104
2832500000.00	3728995901.64	1108141.00000	1110292.00000	0.998062671802
2833350000.00	3728995902.93	1113580.00000	1115475.00000	0.998301172146
2834200000.00	3728995904.22	1104300.00000	1107482.00000	0.997126815605
2835050000.00	3728995905.55	1104713.00000	1106013.00000	0.998824606944
2835900000.00	3728995906.84	1111690.00000	1111654.00000	1.00003238418
2836750000.00	3728995908.13	1116721.00000	1117611.00000	0.999203658518
2837600000.00	3728995909.46	1115836.00000	1115739.00000	1.00008693789
2838450000.00	3728995910.75	1112533.00000	1113872.00000	0.998797887010
2839300000.00	3728995912.04	1114539.00000	1114022.00000	1.00046408419
2840150000.00	3728995913.37	1104437.00000	1107467.00000	0.997264026829
2841000000.00	3728995914.66	1108938.00000	1109489.00000	0.999503374977
2841850000.00	3728995915.95	1109049.00000	1111196.00000	0.998067847616
2842700000.00	3728995917.28	1111461.00000	1114566.00000	0.997214162284
2843550000.00	3728995918.57	1098204.00000	1102989.00000	0.995661788105
2844400000.00	3728995919.85	1098974.00000	1103011.00000	0.996340018368
2845250000.00	3728995921.18	1095064.00000	1096163.00000	0.998997411881
2846100000.00	3728995922.47	1096253.00000	1099243.00000	0.997279946290
2846950000.00	3728995923.76	1105750.00000	1110998.00000	0.995276319129
2847800000.00	3728995925.09	1100335.00000	1103922.00000	0.996750676225
2848650000.00	3728995926.38	1096802.00000	1101649.00000	0.995600232016
2849500000.00	3728995927.67	1100135.00000	1105978.00000	0.994716893103
2850350000.00	3728995929.00	1089505.00000	1094699.00000	0.995255316758
2851200000.00	3728995930.29	1082891.00000	1088199.00000	0.995122215698
2852050000.00	3728995931.58	1091485.00000	1098662.00000	0.993467508661
2852900000.00	3728995932.91	1090079.00000	1099948.00000	0.991027757676
2853750000.00	3728995934.20	1078428.00000	1091715.00000	0.987829241148
2854600000.00	3728995935.49	1085052.00000	1097541.00000	0.988620926234
2855450000.00	3728995936.82	1073927.00000	1088525.00000	0.986589191796
2856300000.00	3728995938.11	1071596.00000	1086464.00000	0.986315239161
2857150000.00	3728995939.40	1075055.00000	1087975.00000	0.988124727131
2858000000.00	3728995940.72	1080954.00000	1093273.00000	0.988732000150
2858850000.00	3728995942.01	1093266.00000	1103762.00000	0.990490703612
2859700000.00	3728995943.29	1094317.00000	1102377.00000	0.992688526702
2860550000.00	3728995944.61	1097676.00000	1108472.00000	0.990260466660
2861400000.00	3728995945.90	1095275.00000	1102667.00000	0.993296253538
2862250000.00	3728995947.19	1092908.00000	1096035.00000	0.997146988919
2863100000.00	3728995948.52	1094156.00000	1096519.00000	0.997844998582
2863950000.00	3728995949.81	1086383.00000	1087877.00000	0.998626682980
2864800000.00	3728995951.10	1100546.00000	1100783.00000	0.999784698710
2865650000.00	3728995952.42	1103704.00000	1104547.00000	0.999236791191
2866500000.00	3728995953.71	1102232.00000	1102184.00000	1.00004354990
2867350000.00	3728995955.00	1087917.00000	1090376.00000	0.997744814633
2868200000.00	3728995956.32	1098807.00000	1102766.00000	0.996409936469
2869050000.00	3728995957.61	1101315.00000	1105054.00000	0.996616454942
2869900000.00	3728995958.94	1107047.00000	1108427.00000	0.998754992435
2870750000.00	3728995960.23	1106190.00000	1107040.00000	0.999232186732
2871600000.00	3728995961.52	1103142.00000	1106598.00000	0.996876914652
2872450000.00	3728995962.81	1105594.00000	1109640.00000	0.996353772395
2873300000.00	3728995964.13	1105758.00000	1108420.00000	0.997598383284
2874150000.00	3728995965.42	1103765.00000	1104078.00000	0.999716505537
2875000000.00	3728995966.75	1099573.00000	1102283.00000	0.997541466211
2875850000.00	3728995968.04	1103340.00000	1109109.00000	0.994798527467
2876700000.00	3728995969.33	1090332.00000	1093935.00000	0.996706385663
2877550000.00	3728995970.66	1081794.00000	1088845.00000	0.993524330828
2878400000.00	3728995971.95	1078109.00000	1088880.00000	0.990108184557
2879250000.00	3728995973.24	1089832.00000	1102035.00000	0.988926848966
2880100000.00	3728995974.57	1092264.00000	1110539.00000	0.983544026819
2880950000.00	3728995975.86	1077411.00000	1094879.00000	0.984045725601
2881800000.00	3728995977.15	1086846.00000	1104602.00000	0.983925431966
2882650000.00	3728995978.48	1081506.00000	1100925.00000	0.982361196267
2883500000.00	3728995979.77	1084796.00000	1103418.00000	0.983123349447
2884350000.00	3728995981.06	1082049.00000	1097277.00000	0.986122009301
2885200000.00	3728995982.39	1086611.00000	1100284.00000	0.987573208372
2886050000.00	3728995983.68	1091192.00000	1098789.00000	0.993086024705
2886900000.00	3728995984.97	1096377.00000	1106115.00000	0.991196213775
2887750000.00	3728995986.26	1093863.00000	1099870.00000	0.994538445453
2888600000.00	3728995987.58	1094796.00000	1099111.00000	0.996074099886
2889450000.00	3728995988.87	1103437.00000	1106405.00000	0.997317438009
2890300000.00	3728995990.16	1100036.00000	1104166.00000	0.996259620383
2891150000.00	3728995991.49	1105331.00000	1109549.00000	0.996198455408
2892000000.00	3728995992.78	1105113.00000	1107445.00000	0.997894252085
2892850000.00	3728995994.07	1100225.00000	1106025.00000	0.994755995570
2893700000.00	3728995995.39	1105876.00000	1108521.00000	0.997613937851
2894550000.00	3728995996.68	1112850.00000	1112569.00000	1.00025256860
2895400000.00	3728995997.97	1114509.00000	1115412.00000	0.999190433669
2896250000.00	3728995999.29	1105421.00000	1107770.00000	0.997879523728
2897100000.00	3728996000.58	1107919.00000	1109127.00000	0.998910855114
2897950000.00	3728996001.91	1109874.00000	1112466.00000	0.997670041152
2898800000.00	3728996003.20	1118706.00000	1118303.00000	1.00036036745
2899650000.00	3728996004.49	1129086.00000	1131019.00000	0.998290921726
2900500000.00	3728996005.82	1129656.00000	1134062.00000	0.996114850864
2901350000.00	3728996007.11	1129834.00000	1130648.00000	0.999280058869
2902200000.00	3728996008.40	1122145.00000	1121952.00000	1.00017202162
2903050000.00	3728996009.73	1107606.00000	1110663.00000	0.997247589953
2903900000.00	3728996011.02	1115919.00000	1118693.00000	0.997520320588
2904750000.00	3728996012.31	1116996.00000	1115183.00000	1.00162574214
2905600000.00	3728996013.64	1109071.00000	1113445.00000	0.996071651496
2906450000.00	3728996014.93	1113557.00000	1114731.00000	0.998946831119
2907300000.00	3728996016.22	1116930.00000	1118795.00000	0.998333027945
2908150000.00	3728996017.55	1113343.00000	1115767.00000	0.997827503412
2909000000.00	3728996018.84	1103846.00000	1104709.00000	0.999218798797
2909850000.00	3728996020.13	1107074.00000	1108926.00000	0.998329915612
2910700000.00	3728996021.46	1106513.00000	1105554.00000	1.00086743841
2911550000.00	3728996022.75	1108217.00000	1109246.00000	0.999072342835
2912400000.00	3728996024.04	1111920.00000	1110871.00000	1.00094430406
2913250000.00	3728996025.37	1111796.00000	1112498.00000	0.999368987630
2914100000.00	3728996026.66	1113849.00000	1116732.00000	0.997418360000
2914950000.00	3728996027.95	1113920.00000	1117876.00000	0.996461145959
2915800000.00	3728996029.28	1116703.00000	1118956.00000	0.997986516002
2916650000.00	3728996030.57	1117400.00000	1121572.00000	0.996280220976
2917500000.00	3728996031.86	1114487.00000	1117796.00000	0.997039710287
2918350000.00	3728996033.19	1114466.00000	1116073.00000	0.998560130027
2919200000.00	3728996034.48	1113620.00000	1113944.00000	0.999709141573
2920050000.00	3728996035.77	1108380.00000	1110766.00000	0.997851932810
2920900000.00	3728996037.10	1109624.00000	1111231.00000	0.998553856039
2921750000.00	3728996038.39	1114782.00000	1116673.00000	0.998306576769
2922600000.00	3728996039.68	1113370.00000	1117652.00000	0.996168753780
2923450000.00	3728996041.00	1115216.00000	1116582.00000	0.998776623660
2924300000.00	3728996042.29	1113992.00000	1114031.00000	0.999964991998
2925150000.00	3728996043.58	1109407.00000	1112104.00000	0.997574867099
2926000000.00	3728996044.90	1108664.00000	1109555.00000	0.999196975364
2926850000.00	3728996046.19	1102119.00000	1100608.00000	1.00137287754
2927700000.00	3728996047.51	1104009.00000	1105633.00000	0.998531158169
2928550000.00	3728996048.81	1100963.00000	1100700.00000	1.00023893886
2929400000.00	3728996050.10	1105245.00000	1107170.00000	0.998261332948
2930250000.00	3728996051.43	1101647.00000	1102617.00000	0.999120274764
2931100000.00	3728996052.72	1103099.00000	1105101.00000	0.998188400879
2931950000.00	3728996054.01	1106997.00000	1108308.00000	0.998817115820
2932800000.00	3728996055.34	1105766.00000	1107558.00000	0.998382026043
2933650000.00	3728996056.63	1106598.00000	1108502.00000	0.998282366653
2934500000.00	3728996057.92	1108996.00000	1109558.00000	0.999493492003
2935350000.00	3728996059.25	1107727.00000	1109534.00000	0.998371388349
2936200000.00	3728996060.54	1108391.00000	1110558.00000	0.998048728657
2937050000.00	3728996061.83	1109819.00000	1107955.00000	1.00168237880
2937900000.00	3728996063.16	1105975.00000	1107319.00000	0.998786257619
2938750000.00	3728996064.45	1104335.00000	1104597.00000	0.999762809423
2939600000.00	3728996065.74	1108141.00000	1106817.00000	1.00119622304
2940450000.00	3728996067.07	1110003.00000	1110161.00000	0.999857678301
2941300000.00	3728996068.36	1105345.00000	1103961.00000	1.00125366748
2942150000.00	3728996069.65	1109951.00000	1108770.00000	1.00106514426
2943000000.00	3728996070.98	1105329.00000	1105373.00000	0.999960194432
2943850000.00	3728996072.27	1101787.00000	1100756.00000	1.00093662901
2944700000.00	3728996073.56	1105516.00000	1106112.00000	0.999461175722
2945550000.00	3728996074.89	1107262.00000	1108681.00000	0.998720100732
2946400000.00	3728996076.18	1108145.00000	1109559.00000	0.998725619818
2947250000.00	3728996077.47	1112021.00000	1113900.00000	0.998313134034
2948100000.00	3728996078.78	1107158.00000	1110072.00000	0.997374945049
2948950000.00	3728996080.07	1107409.00000	1108310.00000	0.999187050554
2949800000.00	3728996081.36	1110272.00000	1109989.00000	1.00025495748
