#Sample	Not specified	
#B-Field Theta	1.39999532928E+2	deg
RF-Frequency	Timestamp	Photon Counter1 CH A	Photon Counter1 CH B	Photon Counter1 Ratio
Hz	s since 1904-01-01 12amUTC	counts	counts	a.u.
2790000000.00	3728994593.42	1182424.00000	1183015.00000	0.999500428989
2790850000.00	3728994594.75	1180360.00000	1179812.00000	1.00046448078
2791700000.00	3728994596.04	1176513.00000	1177444.00000	0.999209304222
2792550000.00	3728994597.33	1181927.00000	1185866.00000	0.996678376815
2793400000.00	3728994598.66	1170737.00000	1172875.00000	0.998177128850
2794250000.00	3728994599.95	1163083.00000	1166180.00000	0.997344320774
2795100000.00	3728994601.24	1167567.00000	1167707.00000	0.999880106910
2795950000.00	3728994602.56	1166594.00000	1168608.00000	0.998276582053
2796800000.00	3728994603.85	1171084.00000	1173782.00000	0.997701447117
2797650000.00	3728994605.13	1176192.00000	1177744.00000	0.998682226358
2798500000.00	3728994606.46	1175865.00000	1178696.00000	0.997598193258
2799350000.00	3728994607.75	1179212.00000	1181301.00000	0.998231610741
2800200000.00	3728994609.04	1177311.00000	1178317.00000	0.999146239934
2801050000.00	3728994610.37	1176350.00000	1176714.00000	0.999690664002
2801900000.00	3728994611.66	1172141.00000	1172731.00000	0.999496900824
2802750000.00	3728994612.95	1162872.00000	1163000.00000	0.999889939811
2803600000.00	3728994614.28	1163900.00000	1166835.00000	0.997484648644
2804450000.00	3728994615.56	1166047.00000	1168575.00000	0.997836681428
2805300000.00	3728994616.86	1171187.00000	1172352.00000	0.999006271154
2806150000.00	3728994618.18	1167654.00000	1169931.00000	0.998053731374
2807000000.00	3728994619.47	1162343.00000	1165015.00000	0.997706467299
2807850000.00	3728994620.76	1168027.00000	1169008.00000	0.999160826958
2808700000.00	3728994622.09	1158709.00000	1162028.00000	0.997143786552
2809550000.00	3728994623.38	1169766.00000	1171285.00000	0.998703133738
2810400000.00	3728994624.67	1163759.00000	1167076.00000	0.997157854330
2811250000.00	3728994626.00	1174096.00000	1174801.00000	0.999399898366
2812100000.00	3728994627.28	1172598.00000	1175314.00000	0.997689128182
2812950000.00	3728994628.58	1175488.00000	1173758.00000	1.00147389837
2813800000.00	3728994629.91	1179323.00000	1181026.00000	0.998558033439
2814650000.00	3728994631.20	1174590.00000	1174195.00000	1.00033640068
2815500000.00	3728994632.49	1166599.00000	1165830.00000	1.00065961590
2816350000.00	3728994633.82	1162624.00000	1164537.00000	0.998357287059
2817200000.00	3728994635.11	1173965.00000	1176013.00000	0.998258522652
2818050000.00	3728994636.40	1176756.00000	1177607.00000	0.999277348046
2818900000.00	3728994637.72	1184182.00000	1181286.00000	1.00245156550
2819750000.00	3728994639.02	1183682.00000	1185046.00000	0.998848989828
2820600000.00	3728994640.31	1164156.00000	1170130.00000	0.994894584362
2821450000.00	3728994641.62	1170975.00000	1171345.00000	0.999684123806
2822300000.00	3728994642.91	1166983.00000	1168208.00000	0.998951385370
2823150000.00	3728994644.20	1168428.00000	1170829.00000	0.997949316254
2824000000.00	3728994645.53	1164299.00000	1165936.00000	0.998595977824
2824850000.00	3728994646.82	1171064.00000	1172565.00000	0.998719900389
2825700000.00	3728994648.11	1171278.00000	1174317.00000	0.997412112743
2826550000.00	3728994649.44	1176579.00000	1177579.00000	0.999150800074
2827400000.00	3728994650.73	1179623.00000	1181747.00000	0.998202660976
2828250000.00	3728994652.02	1179902.00000	1180566.00000	0.999437557917
2829100000.00	3728994653.35	1184997.00000	1185780.00000	0.999339675151
2829950000.00	3728994654.64	1179759.00000	1180469.00000	0.999398544138
2830800000.00	3728994655.93	1174314.00000	1175808.00000	0.998729384389
2831650000.00	3728994657.25	1171834.00000	1172167.00000	0.999715910787
2832500000.00	3728994658.54	1177595.00000	1180861.00000	0.997234221471
2833350000.00	3728994659.83	1177074.00000	1178790.00000	0.998544269972
2834200000.00	3728994661.14	1174394.00000	1178162.00000	0.996801798055
2835050000.00	3728994662.44	1178251.00000	1180595.00000	0.998014560455
2835900000.00	3728994663.77	1172351.00000	1173508.00000	0.999014067224
2836750000.00	3728994665.06	1173429.00000	1173789.00000	0.999693300925
2837600000.00	3728994666.35	1167734.00000	1171997.00000	0.996362618676
2838450000.00	3728994667.66	1176235.00000	1179070.00000	0.997595562604
2839300000.00	3728994668.95	1181316.00000	1185791.00000	0.996226147778
2840150000.00	3728994670.24	1163827.00000	1167875.00000	0.996533875629
2841000000.00	3728994671.57	1162274.00000	1166540.00000	0.996343031529
2841850000.00	3728994672.86	1168987.00000	1175251.00000	0.994670074733
2842700000.00	3728994674.15	1173535.00000	1183960.00000	0.991194803879
2843550000.00	3728994675.48	1162988.00000	1175869.00000	0.989045548441
2844400000.00	3728994676.77	1157232.00000	1170321.00000	0.988815888974
2845250000.00	3728994678.06	1152681.00000	1165552.00000	0.988957163644
2846100000.00	3728994679.39	1146330.00000	1161633.00000	0.986826304005
2846950000.00	3728994680.68	1146833.00000	1160525.00000	0.988201891385
2847800000.00	3728994681.97	1149247.00000	1164279.00000	0.987089005299
2848650000.00	3728994683.30	1153424.00000	1164609.00000	0.990395918287
2849500000.00	3728994684.58	1158325.00000	1167548.00000	0.992100538907
2850350000.00	3728994685.86	1157159.00000	1167353.00000	0.991267422965
2851200000.00	3728994687.19	1156097.00000	1164473.00000	0.992807046621
2852050000.00	3728994688.48	1162823.00000	1166671.00000	0.996701726536
2852900000.00	3728994689.77	1153774.00000	1160480.00000	0.994221356680
2853750000.00	3728994691.10	1160627.00000	1165355.00000	0.995942867195
2854600000.00	3728994692.39	1163113.00000	1164362.00000	0.998927309548
2855450000.00	3728994693.68	1155993.00000	1161251.00000	0.995472124459
2856300000.00	3728994695.00	1158825.00000	1161142.00000	0.998004550692
2857150000.00	3728994696.29	1166321.00000	1171068.00000	0.995946435220
2858000000.00	3728994697.56	1163367.00000	1167131.00000	0.996774997837
2858850000.00	3728994698.87	1154770.00000	1157742.00000	0.997432934108
2859700000.00	3728994700.16	1153520.00000	1154862.00000	0.998837956397
2860550000.00	3728994701.45	1167903.00000	1169295.00000	0.998809539081
2861400000.00	3728994702.78	1172205.00000	1170914.00000	1.00110255749
2862250000.00	3728994704.07	1173418.00000	1175619.00000	0.998127794804
2863100000.00	3728994705.36	1156289.00000	1157132.00000	0.999271474646
2863950000.00	3728994706.69	1156755.00000	1157472.00000	0.999380546570
2864800000.00	3728994707.98	1157579.00000	1159612.00000	0.998246827387
2865650000.00	3728994709.27	1157102.00000	1160507.00000	0.997065937560
2866500000.00	3728994710.60	1157972.00000	1158072.00000	0.999913649583
2867350000.00	3728994711.89	1156611.00000	1159725.00000	0.997314880683
2868200000.00	3728994713.18	1162333.00000	1162059.00000	1.00023578837
2869050000.00	3728994714.51	1160916.00000	1161500.00000	0.999497201894
2869900000.00	3728994715.80	1158403.00000	1160463.00000	0.998224846462
2870750000.00	3728994717.09	1159150.00000	1164918.00000	0.995048578527
2871600000.00	3728994718.41	1168877.00000	1173654.00000	0.995929805547
2872450000.00	3728994719.70	1170827.00000	1170968.00000	0.999879586803
2873300000.00	3728994720.99	1164662.00000	1165376.00000	0.999387322203
2874150000.00	3728994722.32	1159583.00000	1161057.00000	0.998730467152
2875000000.00	3728994723.61	1162796.00000	1163484.00000	0.999408672573
2875850000.00	3728994724.90	1154885.00000	1158191.00000	0.997145548532
2876700000.00	3728994726.23	1157459.00000	1160607.00000	0.997287626216
2877550000.00	3728994727.52	1164858.00000	1165584.00000	0.999377136268
2878400000.00	3728994728.81	1176360.00000	1176247.00000	1.00009606826
2879250000.00	3728994730.14	1177416.00000	1179779.00000	0.997997082504
2880100000.00	3728994731.41	1169824.00000	1170254.00000	0.999632558402
2880950000.00	3728994732.70	1181563.00000	1184574.00000	0.997458157954
2881800000.00	3728994734.03	1170259.00000	1171349.00000	0.999069448986
2882650000.00	3728994735.32	1168178.00000	1172635.00000	0.996199158306
2883500000.00	3728994736.61	1172472.00000	1176698.00000	0.996408594219
2884350000.00	3728994737.94	1159957.00000	1163174.00000	0.997234291688
2885200000.00	3728994739.23	1157868.00000	1164037.00000	0.994700340281
2886050000.00	3728994740.52	1166467.00000	1173435.00000	0.994061878161
2886900000.00	3728994741.84	1168468.00000	1180704.00000	0.989636691330
2887750000.00	3728994743.11	1167216.00000	1180103.00000	0.989079766766
2888600000.00	3728994744.39	1164959.00000	1177378.00000	0.989451985683
2889450000.00	3728994745.71	1160463.00000	1173454.00000	0.988929263525
2890300000.00	3728994747.00	1156358.00000	1173171.00000	0.985668755876
2891150000.00	3728994748.29	1156528.00000	1173554.00000	0.985491933051
2892000000.00	3728994749.61	1155523.00000	1175012.00000	0.983413786412
2892850000.00	3728994750.90	1158603.00000	1178564.00000	0.983063287187
2893700000.00	3728994752.19	1158694.00000	1175359.00000	0.985821353306
2894550000.00	3728994753.51	1161889.00000	1173861.00000	0.989801177482
2895400000.00	3728994754.80	1162493.00000	1177384.00000	0.987352469543
2896250000.00	3728994756.09	1170939.00000	1180844.00000	0.991611931805
2897100000.00	3728994757.41	1178370.00000	1186831.00000	0.992870931076
2897950000.00	3728994758.70	1180463.00000	1187804.00000	0.993819687423
2898800000.00	3728994759.97	1182571.00000	1187617.00000	0.995751155465
2899650000.00	3728994761.29	1182825.00000	1187869.00000	0.995753740522
2900500000.00	3728994762.58	1184371.00000	1186975.00000	0.997806187999
2901350000.00	3728994763.85	1181101.00000	1184701.00000	0.996961258579
2902200000.00	3728994765.17	1175517.00000	1179044.00000	0.997008593403
2903050000.00	3728994766.46	1181678.00000	1183422.00000	0.998526307606
2903900000.00	3728994767.75	1180957.00000	1185349.00000	0.996294762133
2904750000.00	3728994769.07	1175753.00000	1176385.00000	0.999462760916
2905600000.00	3728994770.36	1176757.00000	1178473.00000	0.998543878392
2906450000.00	3728994771.69	1178526.00000	1179693.00000	0.999010759579
2907300000.00	3728994772.98	1178144.00000	1180008.00000	0.998420349693
2908150000.00	3728994774.27	1183916.00000	1185715.00000	0.998482771998
2909000000.00	3728994775.60	1186965.00000	1189882.00000	0.997548496406
2909850000.00	3728994776.89	1178906.00000	1177863.00000	1.00088550196
2910700000.00	3728994778.18	1179531.00000	1179581.00000	0.999957612067
2911550000.00	3728994779.51	1179862.00000	1183010.00000	0.997338991217
2912400000.00	3728994780.80	1181565.00000	1183595.00000	0.998284886300
2913250000.00	3728994782.09	1179781.00000	1182501.00000	0.997699790529
2914100000.00	3728994783.42	1181991.00000	1184921.00000	0.997527261311
2914950000.00	3728994784.71	1177996.00000	1175619.00000	1.00202191356
2915800000.00	3728994786.00	1172842.00000	1176772.00000	0.996660355617
2916650000.00	3728994787.33	1168583.00000	1170081.00000	0.998719746753
2917500000.00	3728994788.62	1174473.00000	1175913.00000	0.998775419610
2918350000.00	3728994789.91	1176483.00000	1179097.00000	0.997783049232
2919200000.00	3728994791.23	1185957.00000	1187020.00000	0.999104480127
2920050000.00	3728994792.52	1178972.00000	1181185.00000	0.998126457752
2920900000.00	3728994793.81	1180262.00000	1182508.00000	0.998100647099
2921750000.00	3728994795.14	1177696.00000	1179767.00000	0.998244568631
2922600000.00	3728994796.43	1176344.00000	1177180.00000	0.999289828234
2923450000.00	3728994797.72	1168094.00000	1168689.00000	0.999490882519
2924300000.00	3728994799.04	1171110.00000	1169604.00000	1.00128761530
2925150000.00	3728994800.33	1164814.00000	1168390.00000	0.996939378119
2926000000.00	3728994801.62	1159398.00000	1162164.00000	0.997619957252
2926850000.00	3728994802.94	1167654.00000	1169240.00000	0.998643563340
2927700000.00	3728994804.23	1167220.00000	1167702.00000	0.999587223453
2928550000.00	3728994805.52	1167128.00000	1169750.00000	0.997758495405
2929400000.00	3728994806.84	1177734.00000	1177718.00000	1.00001358560
2930250000.00	3728994808.13	1173704.00000	1175090.00000	0.998820515875
2931100000.00	3728994809.46	1170178.00000	1173820.00000	0.996897309639
2931950000.00	3728994810.75	1177036.00000	1178434.00000	0.998813679850
2932800000.00	3728994812.04	1177246.00000	1178043.00000	0.999323454237
2933650000.00	3728994813.37	1173459.00000	1172481.00000	1.00083412866
2934500000.00	3728994814.66	1171055.00000	1171973.00000	0.999216705504
2935350000.00	3728994815.95	1175640.00000	1180316.00000	0.996038349052
2936200000.00	3728994817.27	1174004.00000	1174283.00000	0.999762408210
2937050000.00	3728994818.56	1168932.00000	1170058.00000	0.999037654544
2937900000.00	3728994819.89	1171064.00000	1173923.00000	0.997564576212
2938750000.00	3728994821.18	1173818.00000	1174248.00000	0.999633808190
2939600000.00	3728994822.47	1176482.00000	1179198.00000	0.997696739648
2940450000.00	3728994823.80	1182735.00000	1184225.00000	0.998741793156
2941300000.00	3728994825.09	1186994.00000	1186779.00000	1.00018116263
2942150000.00	3728994826.38	1184604.00000	1187307.00000	0.997723419469
2943000000.00	3728994827.71	1188208.00000	1190860.00000	0.997773037973
2943850000.00	3728994829.00	1182338.00000	1184973.00000	0.997776320642
2944700000.00	3728994830.29	1183908.00000	1184540.00000	0.999466459554
2945550000.00	3728994831.62	1182474.00000	1184045.00000	0.998673192320
2946400000.00	3728994832.91	1183924.00000	1185081.00000	0.999023695427
2947250000.00	3728994834.19	1184535.00000	1182881.00000	1.00139828098
2948100000.00	3728994835.52	1181829.00000	1184400.00000	0.997829280648
2948950000.00	3728994836.81	1182615.00000	1183937.00000	0.998883386532
2949800000.00	3728994838.10	1183011.00000	1185252.00000	0.998109262840
