#Sample	Not specified	
#B-Field Phi	8.99995009772E+1	deg
RF-Frequency	Timestamp	Photon Counter1 CH A	Photon Counter1 CH B	Photon Counter1 Ratio
Hz	s since 1904-01-01 12amUTC	counts	counts	a.u.
2770000000.00	3728990254.49	1128807.00000	1127431.00000	1.00122047380
2770850000.00	3728990255.78	1118619.00000	1122446.00000	0.996590481858
2771700000.00	3728990257.10	1108215.00000	1107797.00000	1.00037732545
2772550000.00	3728990258.39	1113993.00000	1114818.00000	0.999259968892
2773400000.00	3728990259.68	1126950.00000	1126296.00000	1.00058066441
2774250000.00	3728990261.01	1126603.00000	1127461.00000	0.999238998067
2775100000.00	3728990262.30	1117855.00000	1118602.00000	0.999332202159
2775950000.00	3728990263.59	1114215.00000	1116816.00000	0.997671057721
2776800000.00	3728990264.91	1104914.00000	1103515.00000	1.00126776709
2777650000.00	3728990266.20	1104775.00000	1104908.00000	0.999879627987
2778500000.00	3728990267.53	1111251.00000	1112654.00000	0.998739050954
2779350000.00	3728990268.82	1112409.00000	1112252.00000	1.00014115506
2780200000.00	3728990270.11	1105653.00000	1105771.00000	0.999893287127
2781050000.00	3728990271.44	1104068.00000	1104156.00000	0.999920301117
2781900000.00	3728990272.73	1093832.00000	1092781.00000	1.00096176636
2782750000.00	3728990274.02	1099991.00000	1100579.00000	0.999465735763
2783600000.00	3728990275.35	1092921.00000	1093451.00000	0.999515296067
2784450000.00	3728990276.64	1094822.00000	1095661.00000	0.999234252200
2785300000.00	3728990277.93	1105472.00000	1109685.00000	0.996203427099
2786150000.00	3728990279.27	1081056.00000	1083778.00000	0.997488415524
2787000000.00	3728990280.54	1081801.00000	1083121.00000	0.998781299596
2787850000.00	3728990281.83	1088098.00000	1092770.00000	0.995724626408
2788700000.00	3728990283.16	1077733.00000	1077212.00000	1.00048365596
2789550000.00	3728990284.45	1087904.00000	1089436.00000	0.998593767784
2790400000.00	3728990285.74	1086527.00000	1087744.00000	0.998881170570
2791250000.00	3728990287.05	1088375.00000	1089187.00000	0.999254489817
2792100000.00	3728990288.34	1084065.00000	1088428.00000	0.995991466592
2792950000.00	3728990289.63	1091594.00000	1091102.00000	1.00045092026
2793800000.00	3728990290.96	1091147.00000	1091286.00000	0.999872627341
2794650000.00	3728990292.25	1081894.00000	1083042.00000	0.998940022640
2795500000.00	3728990293.54	1091611.00000	1091941.00000	0.999697785869
2796350000.00	3728990294.87	1086254.00000	1086408.00000	0.999858248467
2797200000.00	3728990296.16	1083975.00000	1086023.00000	0.998114220417
2798050000.00	3728990297.45	1089110.00000	1092125.00000	0.997239327000
2798900000.00	3728990298.77	1088972.00000	1088948.00000	1.00002203962
2799750000.00	3728990300.06	1082475.00000	1085991.00000	0.996762404108
2800600000.00	3728990301.35	1080757.00000	1082671.00000	0.998232149933
2801450000.00	3728990302.67	1094949.00000	1095122.00000	0.999842026733
2802300000.00	3728990303.96	1092232.00000	1095430.00000	0.997080598486
2803150000.00	3728990305.29	1089162.00000	1090696.00000	0.998593558608
2804000000.00	3728990306.58	1094897.00000	1093910.00000	1.00090226801
2804850000.00	3728990307.87	1089111.00000	1088935.00000	1.00016162581
2805700000.00	3728990309.20	1086911.00000	1088319.00000	0.998706261675
2806550000.00	3728990310.49	1086548.00000	1088385.00000	0.998312178135
2807400000.00	3728990311.78	1090216.00000	1088612.00000	1.00147343590
2808250000.00	3728990313.11	1091420.00000	1091947.00000	0.999517375843
2809100000.00	3728990314.40	1087092.00000	1089276.00000	0.997994998513
2809950000.00	3728990315.69	1077300.00000	1081028.00000	0.996551430675
2810800000.00	3728990317.02	1078085.00000	1081051.00000	0.997256373659
2811650000.00	3728990318.31	1079734.00000	1082408.00000	0.997529582191
2812500000.00	3728990319.60	1088287.00000	1087387.00000	1.00082767221
2813350000.00	3728990320.93	1082297.00000	1084107.00000	0.998330423104
2814200000.00	3728990322.22	1084999.00000	1086597.00000	0.998529353569
2815050000.00	3728990323.50	1090289.00000	1089588.00000	1.00064336245
2815900000.00	3728990324.83	1090841.00000	1092496.00000	0.998485120312
2816750000.00	3728990326.12	1089384.00000	1090546.00000	0.998934478692
2817600000.00	3728990327.41	1098581.00000	1102603.00000	0.996352268223
2818450000.00	3728990328.74	1090638.00000	1092327.00000	0.998453759726
2819300000.00	3728990330.03	1101593.00000	1101895.00000	0.999725926699
2820150000.00	3728990331.32	1097138.00000	1099948.00000	0.997445333779
2821000000.00	3728990332.65	1088013.00000	1087781.00000	1.00021327822
2821850000.00	3728990333.94	1083114.00000	1087149.00000	0.996288457240
2822700000.00	3728990335.23	1084094.00000	1088925.00000	0.995563514475
2823550000.00	3728990336.56	1085209.00000	1087727.00000	0.997685080907
2824400000.00	3728990337.85	1093982.00000	1094070.00000	0.999919566390
2825250000.00	3728990339.14	1103677.00000	1105516.00000	0.998336523397
2826100000.00	3728990340.47	1094726.00000	1098745.00000	0.996342190408
2826950000.00	3728990341.76	1105363.00000	1105831.00000	0.999576788858
2827800000.00	3728990343.05	1093286.00000	1095668.00000	0.997825983783
2828650000.00	3728990344.38	1086821.00000	1089734.00000	0.997326870594
2829500000.00	3728990345.67	1089286.00000	1086293.00000	1.00275524191
2830350000.00	3728990346.96	1105131.00000	1107662.00000	0.997715006924
2831200000.00	3728990348.29	1104274.00000	1106900.00000	0.997627608637
2832050000.00	3728990349.58	1107053.00000	1105442.00000	1.00145733562
2832900000.00	3728990350.87	1096877.00000	1097970.00000	0.999004526535
2833750000.00	3728990352.20	1091834.00000	1093561.00000	0.998420755678
2834600000.00	3728990353.49	1087500.00000	1089017.00000	0.998607000625
2835450000.00	3728990354.78	1085789.00000	1085289.00000	1.00046070678
2836300000.00	3728990356.11	1084077.00000	1087080.00000	0.997237553814
2837150000.00	3728990357.40	1088753.00000	1089535.00000	0.999282262617
2838000000.00	3728990358.69	1091691.00000	1091269.00000	1.00038670575
2838850000.00	3728990360.02	1084128.00000	1083332.00000	1.00073477014
2839700000.00	3728990361.31	1091400.00000	1093458.00000	0.998117897532
2840550000.00	3728990362.60	1097846.00000	1099104.00000	0.998855431333
2841400000.00	3728990363.93	1106925.00000	1108078.00000	0.998959459533
2842250000.00	3728990365.22	1094936.00000	1100063.00000	0.995339357837
2843100000.00	3728990366.51	1086835.00000	1088985.00000	0.998025684468
2843950000.00	3728990367.84	1094538.00000	1095304.00000	0.999300650778
2844800000.00	3728990369.13	1106143.00000	1104528.00000	1.00146216302
2845650000.00	3728990370.42	1106430.00000	1107143.00000	0.999356000083
2846500000.00	3728990371.74	1091938.00000	1093875.00000	0.998229230945
2847350000.00	3728990373.03	1089537.00000	1092930.00000	0.996895501084
2848200000.00	3728990374.32	1092509.00000	1094151.00000	0.998499293059
2849050000.00	3728990375.64	1091654.00000	1094950.00000	0.996989816887
2849900000.00	3728990376.93	1083556.00000	1084883.00000	0.998776826626
2850750000.00	3728990378.26	1079003.00000	1082425.00000	0.996838580040
2851600000.00	3728990379.55	1080850.00000	1085598.00000	0.995626373667
2852450000.00	3728990380.84	1072526.00000	1081402.00000	0.991792136504
2853300000.00	3728990382.17	1064855.00000	1079305.00000	0.986611754787
2854150000.00	3728990383.46	1059523.00000	1076942.00000	0.983825498495
2855000000.00	3728990384.75	1063448.00000	1080569.00000	0.984155569890
2855850000.00	3728990386.08	1060652.00000	1077639.00000	0.984236836269
2856700000.00	3728990387.37	1059709.00000	1076922.00000	0.984016484016
2857550000.00	3728990388.66	1058975.00000	1078558.00000	0.981843350103
2858400000.00	3728990389.99	1057874.00000	1072970.00000	0.985930641118
2859250000.00	3728990391.28	1069934.00000	1081798.00000	0.989033072718
2860100000.00	3728990392.57	1074860.00000	1084389.00000	0.991212563019
2860950000.00	3728990393.88	1077239.00000	1081693.00000	0.995882380675
2861800000.00	3728990395.17	1088564.00000	1091742.00000	0.997089055839
2862650000.00	3728990396.46	1104797.00000	1106792.00000	0.998197493296
2863500000.00	3728990397.79	1087883.00000	1090628.00000	0.997483101479
2864350000.00	3728990399.08	1081030.00000	1082978.00000	0.998201256166
2865200000.00	3728990400.37	1076423.00000	1080353.00000	0.996362300100
2866050000.00	3728990401.70	1073116.00000	1075479.00000	0.997802839479
2866900000.00	3728990402.99	1078340.00000	1081575.00000	0.997008991517
2867750000.00	3728990404.28	1083550.00000	1080273.00000	1.00303349246
2868600000.00	3728990405.59	1079648.00000	1080386.00000	0.999316910808
2869450000.00	3728990406.88	1075158.00000	1078794.00000	0.996629569686
2870300000.00	3728990408.17	1075402.00000	1079172.00000	0.996506580971
2871150000.00	3728990409.50	1084461.00000	1083445.00000	1.00093774949
2872000000.00	3728990410.79	1077290.00000	1079880.00000	0.997601585361
2872850000.00	3728990412.06	1077558.00000	1080729.00000	0.997065869427
2873700000.00	3728990413.39	1083146.00000	1086157.00000	0.997227840911
2874550000.00	3728990414.68	1081865.00000	1083238.00000	0.998732503845
2875400000.00	3728990415.97	1078658.00000	1082874.00000	0.996106656915
2876250000.00	3728990417.30	1081619.00000	1083088.00000	0.998643692849
2877100000.00	3728990418.59	1078203.00000	1084609.00000	0.994093724098
2877950000.00	3728990419.88	1073765.00000	1082152.00000	0.992249702445
2878800000.00	3728990421.21	1066257.00000	1075526.00000	0.991381891279
2879650000.00	3728990422.50	1064890.00000	1078620.00000	0.987270771912
2880500000.00	3728990423.79	1066174.00000	1078725.00000	0.988364967902
2881350000.00	3728990425.12	1067123.00000	1083098.00000	0.985250642139
2882200000.00	3728990426.41	1061234.00000	1074769.00000	0.987406596208
2883050000.00	3728990427.70	1068602.00000	1083072.00000	0.986639854045
2883900000.00	3728990429.03	1068513.00000	1083394.00000	0.986264461498
2884750000.00	3728990430.32	1083045.00000	1092311.00000	0.991517067941
2885600000.00	3728990431.61	1098586.00000	1107151.00000	0.992263927865
2886450000.00	3728990432.94	1100243.00000	1106401.00000	0.994434206043
2887300000.00	3728990434.23	1103348.00000	1107792.00000	0.995988416598
2888150000.00	3728990435.50	1093335.00000	1097077.00000	0.996589118175
2889000000.00	3728990436.79	1102069.00000	1103492.00000	0.998710457348
2889850000.00	3728990438.11	1102249.00000	1103706.00000	0.998679902075
2890700000.00	3728990439.40	1110182.00000	1112554.00000	0.997867968656
2891550000.00	3728990440.73	1101337.00000	1103954.00000	0.997629430212
2892400000.00	3728990442.02	1088434.00000	1090612.00000	0.998002956138
2893250000.00	3728990443.31	1110814.00000	1113046.00000	0.997994692043
2894100000.00	3728990444.64	1119972.00000	1121494.00000	0.998642881727
2894950000.00	3728990445.93	1098396.00000	1101351.00000	0.997316931659
2895800000.00	3728990447.23	1093581.00000	1093320.00000	1.00023872242
2896650000.00	3728990448.55	1090307.00000	1094307.00000	0.996344718621
2897500000.00	3728990449.84	1089453.00000	1090729.00000	0.998830140209
2898350000.00	3728990451.13	1095636.00000	1093014.00000	1.00239887138
2899200000.00	3728990452.45	1091728.00000	1094837.00000	0.997160307881
2900050000.00	3728990453.74	1078915.00000	1081013.00000	0.998059227780
2900900000.00	3728990455.01	1081810.00000	1084721.00000	0.997316360613
2901750000.00	3728990456.33	1090159.00000	1092234.00000	0.998100223945
2902600000.00	3728990457.62	1094416.00000	1097541.00000	0.997152725957
2903450000.00	3728990458.95	1113212.00000	1114171.00000	0.999139270363
2904300000.00	3728990460.24	1101063.00000	1102327.00000	0.998853334809
2905150000.00	3728990461.53	1098389.00000	1098521.00000	0.999879838437
2906000000.00	3728990462.86	1108646.00000	1109792.00000	0.998967374066
2906850000.00	3728990464.15	1107701.00000	1109409.00000	0.998460441550
2907700000.00	3728990465.44	1109160.00000	1109045.00000	1.00010369282
2908550000.00	3728990466.77	1108895.00000	1108691.00000	1.00018400077
2909400000.00	3728990468.06	1117058.00000	1115596.00000	1.00131051026
2910250000.00	3728990469.35	1115085.00000	1115460.00000	0.999663815825
2911100000.00	3728990470.68	1116405.00000	1116787.00000	0.999657947308
2911950000.00	3728990471.97	1099698.00000	1101002.00000	0.998815624313
2912800000.00	3728990473.26	1110114.00000	1113667.00000	0.996809638788
2913650000.00	3728990474.59	1106038.00000	1107365.00000	0.998801659796
2914500000.00	3728990475.88	1094965.00000	1095337.00000	0.999660378495
2915350000.00	3728990477.17	1093904.00000	1093786.00000	1.00010788216
2916200000.00	3728990478.49	1096972.00000	1097038.00000	0.999939838000
2917050000.00	3728990479.78	1104077.00000	1103993.00000	1.00007608744
2917900000.00	3728990481.05	1084505.00000	1086855.00000	0.997837798050
2918750000.00	3728990482.38	1094186.00000	1092751.00000	1.00131319944
2919600000.00	3728990483.67	1085827.00000	1087404.00000	0.998549757036
2920450000.00	3728990484.96	1078062.00000	1079351.00000	0.998805763834
2921300000.00	3728990486.29	1075059.00000	1075727.00000	0.999379024604
2922150000.00	3728990487.58	1076268.00000	1077093.00000	0.999234049427
2923000000.00	3728990488.87	1086025.00000	1087121.00000	0.998991832556
2923850000.00	3728990490.20	1094496.00000	1096639.00000	0.998045847357
2924700000.00	3728990491.49	1098171.00000	1097555.00000	1.00056124750
2925550000.00	3728990492.78	1080211.00000	1081211.00000	0.999075111149
2926400000.00	3728990494.11	1081283.00000	1083400.00000	0.998045966402
2927250000.00	3728990495.40	1078736.00000	1077203.00000	1.00142313009
2928100000.00	3728990496.69	1079570.00000	1080271.00000	0.999351088755
2928950000.00	3728990498.01	1086876.00000	1086496.00000	1.00034974818
2929800000.00	3728990499.30	1088321.00000	1089660.00000	0.998771176330
2930650000.00	3728990500.63	1097290.00000	1100446.00000	0.997132071905
2931500000.00	3728990501.92	1098475.00000	1099019.00000	0.999505013107
2932350000.00	3728990503.21	1096495.00000	1098995.00000	0.997725194382
2933200000.00	3728990504.54	1097105.00000	1097993.00000	0.999191251675
2934050000.00	3728990505.82	1102100.00000	1106807.00000	0.995747226029
2934900000.00	3728990507.11	1096724.00000	1098648.00000	0.998248756654
2935750000.00	3728990508.44	1089296.00000	1093020.00000	0.996592926021
2936600000.00	3728990509.73	1092337.00000	1092580.00000	0.999777590657
2937450000.00	3728990511.02	1085656.00000	1085638.00000	1.00001658011
2938300000.00	3728990512.35	1098935.00000	1100649.00000	0.998442736967
2939150000.00	3728990513.64	1101176.00000	1102038.00000	0.999217812816
2940000000.00	3728990514.93	1085753.00000	1087236.00000	0.998635990714
2940850000.00	3728990516.26	1090906.00000	1091096.00000	0.999825863169
2941700000.00	3728990517.55	1093012.00000	1094033.00000	0.999066755756
2942550000.00	3728990518.84	1092698.00000	1093713.00000	0.999071968606
2943400000.00	3728990520.17	1082006.00000	1082313.00000	0.999716348228
2944250000.00	3728990521.46	1077082.00000	1076331.00000	1.00069774075
2945100000.00	3728990522.75	1069974.00000	1071226.00000	0.998831245694
2945950000.00	3728990524.07	1086127.00000	1086443.00000	0.999709142587
2946800000.00	3728990525.36	1089775.00000	1091163.00000	0.998727962733
2947650000.00	3728990526.65	1099628.00000	1099613.00000	1.00001364116
2948500000.00	3728990527.97	1113626.00000	1113223.00000	1.00036201192
2949350000.00	3728990529.26	1107914.00000	1107995.00000	0.999926894977
2950200000.00	3728990530.55	1102483.00000	1104582.00000	0.998099733655
2951050000.00	3728990531.87	1102327.00000	1104759.00000	0.997798614902
2951900000.00	3728990533.16	1109607.00000	1111868.00000	0.997966485230
2952750000.00	3728990534.45	1116693.00000	1116664.00000	1.00002597021
2953600000.00	3728990535.77	1113025.00000	1114115.00000	0.999021644983
2954450000.00	3728990537.06	1111095.00000	1111463.00000	0.999668904858
2955300000.00	3728990538.39	1109363.00000	1110198.00000	0.999247881909
2956150000.00	3728990539.68	1112320.00000	1113053.00000	0.999341450946
2957000000.00	3728990540.97	1111400.00000	1112528.00000	0.998986092934
2957850000.00	3728990542.30	1108705.00000	1110763.00000	0.998147219524
2958700000.00	3728990543.59	1114835.00000	1115354.00000	0.999534676883
2959550000.00	3728990544.88	1118402.00000	1115496.00000	1.00260511916
2960400000.00	3728990546.21	1111258.00000	1111662.00000	0.999636580184
2961250000.00	3728990547.50	1110921.00000	1112667.00000	0.998430797354
2962100000.00	3728990548.79	1112120.00000	1117098.00000	0.995543810838
2962950000.00	3728990550.12	1106051.00000	1108556.00000	0.997740303602
2963800000.00	3728990551.41	1104733.00000	1107592.00000	0.997418724585
2964650000.00	3728990552.70	1106970.00000	1109161.00000	0.998024633033
2965500000.00	3728990554.03	1108120.00000	1110796.00000	0.997590916784
2966350000.00	3728990555.32	1107921.00000	1108723.00000	0.999276645294
2967200000.00	3728990556.61	1110907.00000	1112351.00000	0.998701848607
2968050000.00	3728990557.94	1110708.00000	1112592.00000	0.998306656888
2968900000.00	3728990559.23	1108165.00000	1110210.00000	0.998158006143
2969750000.00	3728990560.52	1108842.00000	1112186.00000	0.996993308673
